File: krzywa kalibracyjna swv - 100hz - próbka
Potential/V, Diff(i/A), For(i/A), Rev(i/A)
0.496, -2.878e-6, 1.267e-5, 1.555e-5
0.492, -2.893e-6, 1.254e-5, 1.544e-5
0.488, -2.906e-6, 1.243e-5, 1.534e-5
0.484, -2.919e-6, 1.234e-5, 1.526e-5
0.480, -2.933e-6, 1.228e-5, 1.521e-5
0.476, -2.925e-6, 1.220e-5, 1.513e-5
0.472, -2.946e-6, 1.214e-5, 1.509e-5
0.468, -2.951e-6, 1.207e-5, 1.502e-5
0.464, -2.985e-6, 1.200e-5, 1.498e-5
0.460, -2.993e-6, 1.193e-5, 1.492e-5
0.456, -3.036e-6, 1.186e-5, 1.489e-5
0.452, -3.061e-6, 1.178e-5, 1.484e-5
0.448, -3.120e-6, 1.170e-5, 1.482e-5
0.444, -3.164e-6, 1.161e-5, 1.478e-5
0.440, -3.237e-6, 1.152e-5, 1.476e-5
0.436, -3.297e-6, 1.142e-5, 1.472e-5
0.432, -3.391e-6, 1.132e-5, 1.471e-5
0.428, -3.472e-6, 1.121e-5, 1.468e-5
0.424, -3.596e-6, 1.109e-5, 1.469e-5
0.420, -3.710e-6, 1.095e-5, 1.466e-5
0.416, -3.863e-6, 1.081e-5, 1.467e-5
0.412, -4.010e-6, 1.065e-5, 1.466e-5
0.408, -4.206e-6, 1.048e-5, 1.469e-5
0.404, -4.397e-6, 1.029e-5, 1.469e-5
0.400, -4.657e-6, 1.008e-5, 1.473e-5
0.396, -4.929e-6, 9.826e-6, 1.476e-5
0.392, -5.265e-6, 9.554e-6, 1.482e-5
0.388, -5.619e-6, 9.244e-6, 1.486e-5
0.384, -6.054e-6, 8.904e-6, 1.496e-5
0.380, -6.521e-6, 8.512e-6, 1.503e-5
0.376, -7.104e-6, 8.067e-6, 1.517e-5
0.372, -7.742e-6, 7.555e-6, 1.530e-5
0.368, -8.502e-6, 6.982e-6, 1.548e-5
0.364, -9.348e-6, 6.318e-6, 1.567e-5
0.360, -1.035e-5, 5.566e-6, 1.591e-5
0.356, -1.146e-5, 4.701e-6, 1.616e-5
0.352, -1.276e-5, 3.726e-6, 1.648e-5
0.348, -1.422e-5, 2.604e-6, 1.683e-5
0.344, -1.593e-5, 1.333e-6, 1.726e-5
0.340, -1.786e-5, -1.350e-7, 1.772e-5
0.336, -2.010e-5, -1.803e-6, 1.830e-5
0.332, -2.263e-5, -3.719e-6, 1.891e-5
0.328, -2.553e-5, -5.883e-6, 1.965e-5
0.324, -2.883e-5, -8.369e-6, 2.046e-5
0.320, -3.259e-5, -1.118e-5, 2.142e-5
0.316, -3.683e-5, -1.438e-5, 2.245e-5
0.312, -4.167e-5, -1.800e-5, 2.367e-5
0.308, -4.712e-5, -2.212e-5, 2.500e-5
0.304, -5.326e-5, -2.674e-5, 2.653e-5
0.300, -6.014e-5, -3.195e-5, 2.819e-5
0.296, -6.786e-5, -3.778e-5, 3.008e-5
0.292, -7.640e-5, -4.429e-5, 3.210e-5
0.288, -8.590e-5, -5.152e-5, 3.438e-5
0.284, -9.637e-5, -5.957e-5, 3.680e-5
0.280, -1.079e-4, -6.839e-5, 3.947e-5
0.276, -1.203e-4, -7.808e-5, 4.226e-5
0.272, -1.339e-4, -8.860e-5, 4.530e-5
0.268, -1.484e-4, -9.999e-5, 4.838e-5
0.264, -1.638e-4, -1.122e-4, 5.165e-5
0.260, -1.802e-4, -1.253e-4, 5.488e-5
0.256, -1.974e-4, -1.392e-4, 5.820e-5
0.252, -2.152e-4, -1.538e-4, 6.134e-5
0.248, -2.336e-4, -1.692e-4, 6.442e-5
0.244, -2.522e-4, -1.851e-4, 6.714e-5
0.240, -2.710e-4, -2.014e-4, 6.957e-5
0.236, -2.895e-4, -2.181e-4, 7.139e-5
0.232, -3.077e-4, -2.349e-4, 7.275e-5
0.228, -3.251e-4, -2.518e-4, 7.332e-5
0.224, -3.418e-4, -2.686e-4, 7.323e-5
0.220, -3.574e-4, -2.851e-4, 7.223e-5
0.216, -3.716e-4, -3.012e-4, 7.042e-5
0.212, -3.842e-4, -3.167e-4, 6.751e-5
0.208, -3.951e-4, -3.313e-4, 6.381e-5
0.204, -4.038e-4, -3.448e-4, 5.903e-5
0.200, -4.105e-4, -3.571e-4, 5.346e-5
0.196, -4.149e-4, -3.680e-4, 4.691e-5
0.192, -4.169e-4, -3.772e-4, 3.966e-5
0.188, -4.164e-4, -3.849e-4, 3.158e-5
0.184, -4.138e-4, -3.907e-4, 2.309e-5
0.180, -4.086e-4, -3.947e-4, 1.390e-5
0.176, -4.011e-4, -3.967e-4, 4.366e-6
0.172, -3.913e-4, -3.969e-4, -5.646e-6
0.168, -3.794e-4, -3.951e-4, -1.572e-5
0.164, -3.656e-4, -3.916e-4, -2.607e-5
0.160, -3.502e-4, -3.865e-4, -3.621e-5
0.156, -3.335e-4, -3.799e-4, -4.639e-5
0.152, -3.158e-4, -3.720e-4, -5.622e-5
0.148, -2.973e-4, -3.631e-4, -6.584e-5
0.144, -2.785e-4, -3.534e-4, -7.483e-5
0.140, -2.595e-4, -3.431e-4, -8.359e-5
0.136, -2.407e-4, -3.323e-4, -9.164e-5
0.132, -2.222e-4, -3.214e-4, -9.921e-5
0.128, -2.045e-4, -3.105e-4, -1.060e-4
0.124, -1.874e-4, -2.997e-4, -1.123e-4
0.120, -1.714e-4, -2.891e-4, -1.177e-4
0.116, -1.562e-4, -2.788e-4, -1.226e-4
0.112, -1.421e-4, -2.689e-4, -1.268e-4
0.108, -1.290e-4, -2.594e-4, -1.304e-4
0.104, -1.171e-4, -2.504e-4, -1.333e-4
0.100, -1.061e-4, -2.419e-4, -1.358e-4
0.096, -9.619e-5, -2.338e-4, -1.376e-4
0.092, -8.715e-5, -2.262e-4, -1.390e-4
0.088, -7.905e-5, -2.190e-4, -1.399e-4
0.084, -7.170e-5, -2.123e-4, -1.406e-4
0.080, -6.518e-5, -2.060e-4, -1.408e-4
0.076, -5.926e-5, -2.001e-4, -1.408e-4
0.072, -5.403e-5, -1.945e-4, -1.405e-4
0.068, -4.930e-5, -1.893e-4, -1.400e-4
0.064, -4.513e-5, -1.845e-4, -1.393e-4
0.060, -4.134e-5, -1.799e-4, -1.386e-4
0.056, -3.802e-5, -1.756e-4, -1.376e-4
0.052, -3.500e-5, -1.716e-4, -1.366e-4
0.048, -3.236e-5, -1.679e-4, -1.355e-4
0.044, -2.994e-5, -1.643e-4, -1.344e-4
0.040, -2.783e-5, -1.610e-4, -1.331e-4
0.036, -2.588e-5, -1.578e-4, -1.319e-4
0.032, -2.417e-5, -1.548e-4, -1.306e-4
0.028, -2.259e-5, -1.520e-4, -1.294e-4
0.024, -2.121e-5, -1.493e-4, -1.281e-4
0.020, -1.992e-5, -1.468e-4, -1.269e-4
0.016, -1.880e-5, -1.444e-4, -1.256e-4
0.012, -1.774e-5, -1.421e-4, -1.243e-4
0.008, -1.681e-5, -1.399e-4, -1.230e-4
0.004, -1.593e-5, -1.378e-4, -1.218e-4
-0.000, -1.517e-5, -1.358e-4, -1.206e-4
-0.004, -1.443e-5, -1.339e-4, -1.194e-4
-0.008, -1.379e-5, -1.320e-4, -1.182e-4
-0.012, -1.318e-5, -1.303e-4, -1.171e-4
-0.016, -1.265e-5, -1.286e-4, -1.159e-4
-0.020, -1.212e-5, -1.270e-4, -1.149e-4
-0.024, -1.166e-5, -1.254e-4, -1.137e-4
-0.028, -1.121e-5, -1.239e-4, -1.127e-4
-0.032, -1.083e-5, -1.225e-4, -1.116e-4
-0.036, -1.044e-5, -1.211e-4, -1.106e-4
-0.040, -1.011e-5, -1.197e-4, -1.096e-4
-0.044, -9.777e-6, -1.184e-4, -1.087e-4
-0.048, -9.495e-6, -1.172e-4, -1.077e-4
-0.052, -9.197e-6, -1.160e-4, -1.068e-4
-0.056, -8.947e-6, -1.148e-4, -1.058e-4
-0.060, -8.688e-6, -1.136e-4, -1.049e-4
-0.064, -8.482e-6, -1.125e-4, -1.040e-4
-0.068, -8.262e-6, -1.115e-4, -1.032e-4
-0.072, -8.083e-6, -1.104e-4, -1.023e-4
-0.076, -7.880e-6, -1.094e-4, -1.015e-4
-0.080, -7.717e-6, -1.084e-4, -1.007e-4
-0.084, -7.537e-6, -1.075e-4, -9.993e-5
-0.088, -7.407e-6, -1.065e-4, -9.913e-5
-0.092, -7.252e-6, -1.056e-4, -9.839e-5
-0.096, -7.129e-6, -1.048e-4, -9.763e-5
-0.100, -6.990e-6, -1.039e-4, -9.691e-5
-0.104, -6.883e-6, -1.031e-4, -9.618e-5
-0.108, -6.758e-6, -1.022e-4, -9.549e-5
-0.112, -6.675e-6, -1.015e-4, -9.478e-5
-0.116, -6.569e-6, -1.007e-4, -9.411e-5
-0.120, -6.493e-6, -9.993e-5, -9.343e-5
-0.124, -6.395e-6, -9.919e-5, -9.280e-5
-0.128, -6.326e-6, -9.847e-5, -9.214e-5
-0.132, -6.236e-6, -9.777e-5, -9.153e-5
-0.136, -6.183e-6, -9.708e-5, -9.090e-5
-0.140, -6.109e-6, -9.642e-5, -9.031e-5
-0.144, -6.057e-6, -9.576e-5, -8.970e-5
-0.148, -5.991e-6, -9.512e-5, -8.913e-5
-0.152, -5.960e-6, -9.450e-5, -8.854e-5
-0.156, -5.901e-6, -9.388e-5, -8.798e-5
-0.160, -5.870e-6, -9.328e-5, -8.741e-5
-0.164, -5.817e-6, -9.270e-5, -8.689e-5
-0.168, -5.791e-6, -9.213e-5, -8.634e-5
-0.172, -5.746e-6, -9.158e-5, -8.583e-5
-0.176, -5.736e-6, -9.103e-5, -8.530e-5
-0.180, -5.705e-6, -9.050e-5, -8.480e-5
-0.184, -5.705e-6, -8.999e-5, -8.428e-5
-0.188, -5.683e-6, -8.948e-5, -8.380e-5
-0.192, -5.680e-6, -8.898e-5, -8.330e-5
-0.196, -5.685e-6, -8.850e-5, -8.281e-5
-0.200, -5.698e-6, -8.803e-5, -8.233e-5
